Oscilloscope Trace Export		
Festo Didactic LVDAC-EMS 3.19		
		
		
		Ch1		Ch2		Ch3		Ch4		Ch5		Ch6		Ch7		Ch8		
Time 		E1		I1		E2		Off		E3		Off		Off		Off		
(ms)		(V)		(A)		(V)		()		(V)		()		()		()		
0.000		6.6		0.006		175.1				-187.9								
0.098		16.7		-0.011		173.3				-192.7								
0.195		20.2		-0.008		165.9				-191.8								
0.293		28.1		-0.013		159.3				-197.8								
0.391		39.5		-0.004		158.0				-200.4								
0.488		43.9		0.000		154.9				-200.4								
0.586		50.0		-0.015		147.0				-204.8								
0.684		58.8		-0.013		144.4				-206.5								
0.781		64.5		-0.004		138.7				-205.6								
0.879		70.2		0.000		133.5				-208.6								
0.977		77.6		-0.006		128.7				-208.2								
1.074		82.5		0.002		129.5				-208.2								
1.172		89.0		-0.006		121.7				-210.8								
1.270		93.4		0.000		116.0				-213.8								
1.367		95.2		-0.006		111.6				-210.8								
1.465		100.9		-0.006		107.2				-211.7								
1.563		103.5		-0.002		106.8				-213.8								
1.660		114.5		-0.002		114.2				-213.8								
1.758		119.3		-0.011		116.4				-212.1								
1.855		120.6		-0.008		120.8				-213.4								
1.953		125.4		-0.006		126.9				-213.4								
2.051		131.6		0.000		130.9				-211.7								
2.148		135.5		-0.002		135.2				-213.0								
2.246		137.7		-0.002		139.2				-211.7								
2.344		140.8		0.004		143.1				-213.0								
2.441		146.9		-0.017		146.6				-210.4								
2.539		149.6		-0.013		150.1				-209.9								
2.637		153.9		-0.002		157.1				-207.8								
2.734		159.2		-0.023		157.5				-203.9								
2.832		163.6		-0.004		166.7				-201.3								
2.930		168.4		-0.004		169.4				-196.5								
3.027		169.7		-0.013		172.0				-188.3								
3.125		178.1		-0.008		174.2				-185.7								
3.223		180.7		-0.002		179.4				-183.2								
3.320		182.9		-0.004		181.6				-179.3								
3.418		184.6		-0.013		185.6				-174.1								
3.516		188.2		0.002		189.5				-167.6								
3.613		191.7		-0.004		189.5				-164.6								
3.711		195.6		-0.002		194.3				-161.6								
3.809		196.5		-0.002		196.1				-157.7								
3.906		199.6		-0.004		196.5				-148.2								
4.004		199.6		-0.008		199.6				-146.4								
4.102		205.3		-0.008		200.9				-143.8								
4.199		202.6		-0.004		202.6				-136.5								
4.297		205.7		-0.021		202.6				-130.9								
4.395		207.5		-0.008		204.8				-129.6								
4.492		206.6		-0.006		203.5				-124.0								
4.590		206.6		-0.008		202.6				-119.7								
4.688		210.5		-0.004		203.9				-114.5								
4.785		211.0		-0.015		205.7				-113.6								
4.883		206.1		-0.008		206.1				-104.1								
4.980		207.5		-0.008		209.6				-111.4								
5.078		207.5		-0.004		208.8				-118.4								
5.176		210.1		-0.008		206.6				-119.2								
5.273		207.5		-0.008		207.9				-125.7								
5.371		209.2		-0.015		207.0				-128.3								
5.469		207.5		-0.011		209.2				-134.8								
5.566		210.5		-0.006		207.0				-136.5								
5.664		209.2		0.000		208.8				-142.1								
5.762		204.8		-0.015		205.7				-146.9								
5.859		205.7		-0.008		203.9				-152.1								
5.957		204.4		-0.008		203.5				-152.9								
6.055		203.9		-0.006		200.4				-159.4								
6.152		200.4		0.006		197.4				-164.1								
6.250		193.9		-0.011		190.8				-167.2								
6.348		190.4		-0.008		186.9				-173.7								
6.445		183.3		-0.008		181.6				-178.0								
6.543		179.4		0.002		177.2				-179.7								
6.641		175.4		-0.004		174.2				-181.9								
6.738		172.4		0.000		170.2				-187.9								
6.836		168.9		-0.004		167.2				-190.9								
6.934		165.4		0.000		161.5				-190.5								
7.031		160.5		-0.015		156.2				-195.7								
7.129		157.9		0.000		158.4				-194.4								
7.227		150.9		-0.008		148.8				-199.1								
7.324		145.6		-0.008		147.9				-202.6								
7.422		141.7		0.000		140.5				-203.0								
7.520		136.0		-0.019		135.7				-204.8								
7.617		134.2		-0.002		132.6				-202.2								
7.715		128.9		-0.011		127.8				-205.2								
7.813		122.8		-0.002		125.2				-204.8								
7.910		121.1		-0.011		118.2				-207.3								
8.008		115.4		0.004		114.7				-205.6								
8.105		110.1		-0.011		108.5				-208.2								
8.203		108.3		0.002		108.5				-207.8								
8.301		101.3		-0.008		110.7				-209.1								
8.398		97.8		0.008		117.7				-209.9								
8.496		89.5		-0.006		122.5				-209.5								
8.594		85.5		-0.015		127.4				-210.8								
8.691		80.3		-0.006		129.5				-212.1								
8.789		76.3		-0.011		133.5				-205.6								
8.887		70.6		-0.015		138.7				-208.2								
8.984		64.9		-0.011		140.0				-207.8								
9.082		54.8		0.000		145.3				-206.9								
9.180		52.2		-0.017		151.9				-205.6								
9.277		41.7		-0.004		157.5				-203.9								
9.375		36.0		-0.004		160.2				-204.8								
9.473		26.3		-0.008		166.7				-199.1								
9.570		22.4		-0.011		167.2				-194.0								
9.668		12.7		-0.015		173.7				-190.9								
9.766		10.5		-0.008		175.9				-183.6								
9.863		1.3		-0.006		179.4				-183.6								
9.961		-2.2		-0.006		183.4				-175.8								
10.059		-13.2		-0.021		189.5				-173.7								
10.156		-21.1		-0.017		189.5				-166.7								
10.254		-29.8		-0.004		191.2				-163.7								
10.352		-33.3		0.008		198.2				-156.8								
10.449		-43.4		-0.008		198.7				-155.1								
10.547		-49.1		0.000		203.9				-152.1								
10.645		-57.5		-0.006		198.7				-147.7								
10.742		-64.9		-0.023		205.3				-141.7								
10.840		-68.4		-0.002		207.9				-141.7								
10.938		-76.3		-0.021		209.6				-130.9								
11.035		-82.5		-0.006		209.2				-127.9								
11.133		-86.8		-0.006		207.4				-123.5								
11.230		-94.7		-0.015		208.3				-119.2								
11.328		-100.4		-0.011		210.1				-114.5								
11.426		-102.2		-0.015		210.1				-106.7								
11.523		-105.7		-0.021		212.7				-105.8								
11.621		-109.6		-0.013		213.1				-111.4								
11.719		-117.5		-0.008		211.4				-118.8								
11.816		-120.6		-0.015		212.7				-122.2								
11.914		-128.1		-0.021		213.6				-126.6								
12.012		-129.4		-0.013		213.6				-129.6								
12.109		-135.5		-0.002		210.9				-133.0								
12.207		-139.9		-0.008		214.0				-135.6								
12.305		-141.2		-0.019		211.8				-141.3								
12.402		-148.7		-0.021		212.7				-145.1								
12.500		-151.3		-0.004		210.9				-149.5								
12.598		-154.4		-0.004		207.0				-153.8								
12.695		-158.3		-0.011		204.8				-159.0								
12.793		-163.2		0.004		201.3				-163.3								
12.891		-167.1		0.000		199.1				-168.5								
12.988		-173.7		-0.017		193.0				-172.8								
13.086		-175.9		-0.011		185.6				-174.9								
13.184		-178.9		-0.015		179.9				-179.7								
13.281		-181.6		-0.021		178.1				-181.0								
13.379		-186.4		-0.015		172.9				-187.0								
13.477		-186.8		-0.019		169.8				-189.2								
13.574		-194.3		-0.021		165.9				-190.9								
13.672		-194.3		-0.004		161.5				-193.1								
13.770		-196.1		-0.011		154.9				-197.0								
13.867		-197.8		-0.011		153.6				-197.8								
13.965		-201.3		-0.017		148.8				-200.4								
14.063		-203.9		-0.008		145.3				-204.3								
14.160		-203.1		-0.006		140.0				-203.9								
14.258		-206.1		0.002		134.8				-205.2								
14.355		-205.7		-0.011		128.2				-206.0								
14.453		-206.1		0.006		127.8				-204.3								
14.551		-207.9		0.000		121.2				-204.3								
14.648		-208.8		-0.004		116.8				-205.6								
14.746		-207.9		-0.008		108.5				-208.2								
14.844		-208.3		-0.019		106.3				-208.6								
14.941		-210.5		0.000		105.5				-210.8								
15.039		-210.1		-0.017		110.7				-207.3								
15.137		-211.8		-0.017		118.6				-207.3								
15.234		-208.3		-0.008		122.1				-207.8								
15.332		-209.2		-0.015		125.6				-211.7								
15.430		-211.0		-0.002		130.4				-209.1								
15.527		-211.0		0.002		134.8				-209.9								
15.625		-211.0		-0.006		136.5				-209.9								
15.723		-209.6		-0.008		146.2				-209.1								
15.820		-210.5		0.000		146.6				-206.5								
15.918		-207.5		-0.017		151.4				-204.8								
16.016		-204.8		0.004		157.5				-202.6								
16.113		-203.5		-0.017		158.4				-200.0								
16.211		-196.9		-0.006		163.7				-195.7								
16.309		-192.5		-0.008		168.5				-190.5								
16.406		-188.6		-0.015		173.3				-187.5								
16.504		-181.6		-0.008		177.2				-185.7								
16.602		-178.5		-0.006		182.1				-174.5								
16.699		-175.0		-0.002		183.8				-174.1								
16.797		-173.2		-0.008		187.3				-169.3								
16.895		-166.7		-0.011		187.7				-165.0								
16.992		-163.6		-0.015		190.4				-160.7								
17.090		-159.6		-0.015		193.9				-159.8								
17.188		-154.8		0.000		200.4				-153.8								
17.285		-147.8		-0.011		199.6				-147.7								
17.383		-148.7		-0.019		199.1				-145.6								
17.480		-142.5		-0.011		202.2				-138.7								
17.578		-136.8		0.004		203.9				-134.8								
17.676		-131.6		-0.019		206.1				-128.7								
17.773		-126.3		-0.004		204.4				-126.1								
17.871		-124.6		-0.023		204.4				-120.5								
17.969		-118.9		-0.008		207.0				-117.9								
18.066		-114.0		-0.017		207.0				-113.6								
18.164		-109.6		0.000		207.4				-107.6								
18.262		-104.4		-0.004		205.3				-111.4								
18.359		-100.4		-0.006		206.6				-115.8								
18.457		-94.3		-0.019		205.3				-119.7								
18.555		-88.6		-0.011		207.9				-126.1								
18.652		-85.1		0.000		208.8				-130.5								
18.750		-79.4		0.000		209.6				-134.8								
18.848		-72.8		-0.004		204.4				-139.1								
18.945		-69.7		-0.006		206.1				-142.1								
19.043		-59.2		-0.006		208.8				-145.6								
19.141		-53.9		-0.015		203.9				-151.6								
19.238		-47.4		-0.015		205.7				-155.9								
19.336		-42.1		-0.002		206.6				-158.5								
19.434		-32.5		-0.011		200.9				-165.0								
19.531		-25.9		-0.004		197.8				-167.2								
19.629		-16.7		-0.013		192.6				-171.5								
19.727		-13.2		-0.008		189.9				-175.8								
19.824		-5.7		0.000		185.6				-179.7								
19.922		-0.4		-0.006		175.9				-181.9								
20.020		7.0		-0.006		175.5				-187.0								
20.117		17.5		-0.006		168.9				-189.6								
20.215		24.1		-0.004		165.4				-190.9								
20.313		28.9		-0.015		160.6				-196.5								
20.410		34.2		-0.017		156.2				-198.3								
20.508		43.0		-0.006		151.9				-201.7								
20.605		49.1		0.002		149.2				-201.3								
20.703		59.2		-0.004		143.1				-207.8								
20.801		64.0		-0.017		137.9				-206.0								
20.898		69.7		-0.002		136.1				-207.3								
20.996		77.2		-0.002		131.7				-211.2								
21.094		82.9		-0.006		126.0				-212.1								
21.191		87.7		-0.011		121.7				-211.7								
21.289		94.7		-0.008		117.3				-212.5								
21.387		101.3		-0.006		109.4				-213.4								
21.484		102.6		-0.004		106.8				-209.9								
21.582		105.7		-0.006		103.7				-211.7								
21.680		112.7		-0.015		109.4				-210.4								
21.777		115.4		-0.008		115.1				-212.5								
21.875		121.5		-0.011		120.8				-212.5								
21.973		125.9		0.000		125.2				-211.7								
22.070		132.0		-0.004		128.7				-216.0								
22.168		133.3		-0.002		135.7				-213.8								
22.266		139.0		-0.015		138.7				-212.1								
22.363		144.3		0.006		140.9				-210.8								
22.461		147.8		0.002		147.9				-211.7								
22.559		151.3		-0.006		150.5				-209.5								
22.656		156.1		-0.004		157.1				-209.9								
22.754		160.1		0.006		161.9				-199.6								
22.852		164.5		-0.006		162.8				-201.7								
22.949		168.9		0.002		168.5				-193.5								
23.047		172.4		-0.013		172.0				-192.2								
23.145		174.6		0.008		177.7				-189.2								
23.242		176.8		-0.013		178.1				-181.0								
23.340		183.8		-0.011		181.6				-178.8								
23.438		185.1		0.013		187.3				-173.2								
23.535		192.1		-0.019		186.9				-168.9								
23.633		190.8		-0.006		189.5				-165.4								
23.730		192.5		-0.011		192.6				-161.6								
23.828		196.1		-0.006		195.6				-158.1								
23.926		199.1		-0.008		197.8				-149.5								
24.023		203.1		-0.008		198.2				-146.9								
24.121		202.2		-0.011		201.8				-141.7								
24.219		203.1		-0.006		203.9				-136.9								
24.316		206.6		-0.008		203.5				-130.9								
24.414		205.7		-0.017		204.4				-128.3								
24.512		207.5		-0.008		205.7				-125.7								
24.609		207.9		-0.011		205.3				-116.2								
24.707		207.5		0.002		208.8				-115.8								
24.805		207.0		-0.008		208.3				-110.2								
24.902		207.5		-0.008		208.8				-107.6								
25.000		207.0		-0.006		207.9				-111.0								
25.098		207.5		-0.015		205.3				-116.2								
25.195		206.6		-0.011		206.6				-119.2								
25.293		209.2		-0.004		207.9				-124.4								
25.391		208.8		-0.008		207.4				-128.7								
25.488		208.8		0.000		206.1				-132.6								
25.586		210.1		-0.004		208.8				-136.5								
25.684		206.1		-0.006		208.3				-142.5								
25.781		206.1		-0.002		206.1				-147.3								
25.879		207.5		-0.006		204.8				-152.9								
25.977		206.1		-0.006		201.3				-155.9								
26.074		203.1		-0.008		200.4				-159.8								
26.172		199.1		-0.004		198.7				-162.4								
26.270		193.9		0.008		196.9				-167.6								
26.367		189.5		0.000		188.2				-171.5								
26.465		184.6		-0.011		184.7				-178.0								
26.563		179.4		-0.013		178.1				-181.9								
26.660		176.3		0.000		173.7				-184.4								
26.758		170.2		0.006		170.2				-184.9								
26.855		167.5		-0.002		168.5				-189.6								
26.953		162.7		-0.006		161.5				-192.7								
27.051		159.2		0.002		157.5				-192.2								
27.148		151.3		0.002		156.2				-198.7								
27.246		150.9		0.011		150.5				-201.3								
27.344		147.4		-0.015		146.2				-198.3								
27.441		139.9		-0.013		139.6				-202.6								
27.539		137.3		-0.011		137.9				-206.0								
27.637		131.6		-0.017		131.3				-203.9								
27.734		128.9		0.000		128.7				-206.9								
27.832		121.5		-0.004		123.0				-206.9								
27.930		118.0		-0.008		118.2				-207.3								
28.027		115.8		0.004		113.8				-206.5								
28.125		109.2		-0.021		107.2				-206.0								
28.223		105.7		0.002		107.7				-209.1								
28.320		103.1		-0.004		110.7				-208.2								
28.418		95.6		-0.002		119.0				-209.9								
28.516		89.0		-0.004		122.1				-211.2								
28.613		85.1		-0.006		124.7				-207.8								
28.711		78.5		-0.002		132.6				-209.9								
28.809		72.4		-0.002		135.7				-210.4								
28.906		69.7		-0.008		139.2				-210.4								
29.004		64.0		-0.004		142.7				-209.9								
29.102		54.8		-0.002		147.5				-211.7								
29.199		50.4		0.000		154.5				-207.3								
29.297		40.8		-0.013		155.8				-206.0								
29.395		36.0		-0.004		161.1				-203.0								
29.492		28.9		-0.006		163.2				-199.6								
29.590		22.8		0.002		170.2				-194.8								
29.688		14.0		0.002		172.0				-193.5								
29.785		9.6		-0.002		179.0				-187.9								
29.883		2.2		-0.013		178.1				-181.0								
29.980		-7.0		-0.006		182.9				-179.7								
30.078		-14.5		-0.011		189.5				-171.1								
30.176		-21.9		-0.013		188.2				-165.0								
30.273		-29.8		-0.013		193.4				-163.7								
30.371		-35.5		-0.008		195.2				-159.0								
30.469		-42.1		0.000		198.2				-154.2								
30.566		-47.8		0.002		203.1				-151.6								
30.664		-55.7		-0.011		201.8				-148.6								
30.762		-61.4		-0.013		202.6				-143.4								
30.859		-68.4		0.002		207.0				-138.7								
30.957		-75.9		-0.008		208.3				-132.6								
31.055		-82.5		-0.008		208.3				-130.9								
31.152		-89.5		-0.008		208.8				-125.3								
31.250		-96.1		-0.021		211.4				-122.7								
31.348		-98.7		0.002		211.8				-115.8								
31.445		-104.8		-0.017		210.9				-109.7								
31.543		-107.0		0.002		211.8				-105.0								
31.641		-108.8		-0.008		212.3				-109.3								
31.738		-116.2		-0.011		214.4				-116.6								
31.836		-123.2		-0.013		212.7				-121.8								
31.934		-125.9		-0.002		216.2				-124.4								
32.031		-129.4		-0.008		211.8				-129.2								
32.129		-136.8		-0.013		212.7				-132.6								
32.227		-138.2		-0.015		211.4				-136.9								
32.324		-142.5		0.000		212.3				-140.8								
32.422		-147.4		0.002		214.0				-145.1								
32.520		-150.9		-0.015		211.8				-149.0								
32.617		-157.5		-0.015		207.9				-155.9								
32.715		-161.0		-0.013		205.3				-159.0								
32.813		-166.2		-0.006		199.1				-165.0								
32.910		-166.7		-0.004		194.7				-165.4								
33.008		-170.2		-0.011		191.7				-171.5								
33.105		-178.9		-0.017		188.2				-175.8								
33.203		-178.5		-0.015		180.7				-178.4								
33.301		-182.0		-0.013		179.4				-182.3								
33.398		-186.4		-0.008		172.0				-181.4								
33.496		-185.5		-0.011		168.9				-185.7								
33.594		-193.0		0.000		165.4				-191.4								
33.691		-194.3		-0.011		159.7				-190.9								
33.789		-194.7		-0.021		156.2				-196.1								
33.887		-198.7		0.002		156.2				-197.4								
33.984		-200.0		-0.013		146.6				-200.4								
34.082		-201.8		-0.015		142.2				-202.2								
34.180		-201.8		-0.011		139.2				-205.6								
34.277		-204.4		-0.011		133.5				-203.9								
34.375		-206.6		-0.019		130.4				-204.8								
34.473		-206.1		0.000		126.0				-209.5								
34.570		-208.3		0.004		120.8				-206.9								
34.668		-206.6		-0.006		118.2				-208.6								
34.766		-209.6		-0.015		109.8				-206.0								
34.863		-208.8		-0.019		106.8				-207.8								
34.961		-209.2		-0.006		112.5				-209.1								
35.059		-208.3		-0.013		113.8				-210.4								
35.156		-210.1		-0.019		118.2				-210.8								
35.254		-211.0		-0.008		120.8				-208.2								
35.352		-210.1		0.004		126.9				-208.6								
35.449		-207.9		-0.002		132.6				-209.1								
35.547		-210.1		-0.017		133.9				-209.9								
35.645		-214.0		-0.011		137.0				-207.8								
35.742		-208.3		-0.013		144.9				-208.2								
35.840		-210.1		-0.006		147.0				-206.5								
35.938		-209.2		-0.013		152.7				-206.0								
36.035		-205.3		-0.006		154.9				-205.2								
36.133		-202.2		-0.013		162.4				-200.4								
36.230		-194.7		-0.006		164.1				-193.1								
36.328		-192.1		-0.002		171.1				-187.9								
36.426		-187.7		-0.006		172.9				-186.2								
36.523		-182.9		-0.017		175.5				-180.6								
36.621		-178.1		-0.008		179.0				-174.9								
36.719		-177.6		0.002		183.4				-173.2								
36.816		-171.5		-0.006		183.8				-166.7								
36.914		-167.5		0.002		189.1				-163.3								
37.012		-162.7		-0.017		193.9				-162.4								
37.109		-158.8		-0.013		193.9				-159.0								
37.207		-153.5		-0.008		195.2				-154.2								
37.305		-149.6		-0.008		199.1				-148.6								
37.402		-143.4		-0.023		200.9				-145.1								
37.500		-141.7		-0.004		201.8				-138.7								
37.598		-136.4		-0.015		203.9				-134.3								
37.695		-133.3		-0.015		205.7				-130.0								
37.793		-130.7		-0.008		205.3				-123.1								
37.891		-122.8		-0.004		205.7				-122.2								
37.988		-118.0		0.000		205.7				-116.6								
38.086		-113.2		-0.013		205.3				-111.9								
38.184		-109.6		0.000		206.1				-107.6								
38.281		-104.8		-0.008		205.7				-110.2								
38.379		-99.1		0.002		207.4				-114.9								
38.477		-93.0		-0.015		208.8				-121.4								
38.574		-90.4		-0.011		207.4				-125.7								
38.672		-82.0		-0.008		207.9				-130.9								
38.770		-77.6		-0.021		209.2				-134.8								
38.867		-73.7		-0.013		208.3				-138.2								
38.965		-66.7		0.008		209.6				-142.5								
39.063		-61.4		-0.008		206.6				-145.6								
39.160		-54.4		-0.015		205.7				-153.8								
39.258		-45.2		-0.013		203.1				-155.9								
39.355		-40.8		-0.013		202.2				-160.3								
39.453		-32.9		-0.006		201.3				-163.7								
39.551		-23.7		-0.011		197.4				-167.6								
39.648		-20.2		-0.006		192.6				-172.8								
39.746		-12.7		-0.023		188.2				-177.5								
39.844		-6.1		-0.008		181.6				-180.1								
39.941		2.2		-0.021		175.1				-184.0								
40.039		8.3		-0.013		172.9				-186.6								
40.137		15.8		-0.006		168.1				-190.5								
40.234		22.8		0.002		165.9				-195.2								
40.332		29.8		-0.011		162.4				-195.7								
40.430		37.3		-0.006		156.7				-198.3								
40.527		42.1		-0.008		151.9				-202.6								
40.625		50.4		0.000		148.8				-204.8								
40.723		57.0		0.000		145.3				-204.8								
40.820		64.5		0.011		140.5				-205.6								
40.918		73.2		-0.004		134.4				-208.6								
41.016		75.9		0.004		130.4				-209.9								
41.113		84.6		-0.008		128.7				-211.2								
41.211		89.5		0.002		120.8				-210.4								
41.309		96.9		-0.015		117.7				-210.8								
41.406		101.3		0.000		111.2				-215.6								
41.504		105.3		-0.017		107.7				-212.5								
41.602		106.6		-0.006		107.2				-213.0								
41.699		114.5		-0.004		113.8				-210.8								
41.797		118.4		-0.006		117.7				-213.4								
41.895		123.7		-0.004		123.0				-215.6								
41.992		125.4		0.000		126.9				-214.3								
42.090		132.9		-0.002		133.9				-212.5								
42.188		133.8		-0.011		133.5				-213.0								
42.285		140.4		-0.008		139.2				-212.5								
42.383		144.7		-0.008		142.7				-214.7								
42.480		147.4		-0.002		146.2				-213.0								
42.578		150.9		0.000		149.2				-211.7								
42.676		153.9		-0.004		158.0				-206.5								
42.773		161.4		-0.006		158.9				-204.3								
42.871		164.9		-0.002		163.7				-200.9								
42.969		168.9		-0.015		171.1				-194.0								
43.066		169.3		-0.008		171.1				-188.8								
43.164		176.8		-0.013		175.9				-186.2								
43.262		180.7		-0.002		179.4				-181.4								
43.359		183.3		-0.004		182.9				-175.4								
43.457		184.6		0.002		184.7				-173.2								
43.555		190.4		-0.011		187.7				-168.5								
43.652		193.0		-0.008		189.9				-165.0								
43.750		194.7		0.000		196.9				-159.8								
43.848		195.2		0.000		198.7				-156.4								
43.945		196.1		0.002		198.7				-154.2								
44.043		199.6		-0.013		200.4				-146.4								
44.141		200.0		-0.008		201.8				-142.1								
44.238		202.6		-0.008		201.8				-137.4								
44.336		204.4		0.000		207.4				-131.3								
44.434		204.4		-0.004		203.5				-128.7								
44.531		205.7		-0.015		203.1				-125.7								
44.629		206.6		-0.008		204.4				-118.4								
44.727		210.1		-0.013		203.5				-115.8								
44.824		208.3		-0.004		206.6				-109.3								
44.922		207.5		0.002		209.2				-107.1								
45.020		207.5		0.002		208.8				-112.3								
45.117		210.1		-0.013		207.0				-115.8								
45.215		205.7		-0.006		206.6				-119.2								
45.313		211.0		-0.017		206.6				-124.0								
45.410		208.3		-0.008		207.0				-129.2								
45.508		207.0		-0.015		206.6				-135.2								
45.605		208.8		-0.013		206.6				-136.9								
45.703		206.1		-0.011		204.8				-142.5								
45.801		207.0		-0.013		207.9				-146.9								
45.898		207.0		-0.011		207.0				-150.8								
45.996		203.5		0.004		206.6				-158.1								
46.094		203.9		-0.004		200.4				-157.7								
46.191		197.4		-0.006		192.6				-163.3								
46.289		194.3		-0.004		190.4				-169.8								
46.387		189.0		-0.019		186.4				-172.8								
46.484		182.0		0.000		183.8				-177.1								
46.582		178.1		-0.004		177.7				-181.0								
46.680		175.9		-0.006		175.9				-182.3								
46.777		169.7		0.008		171.1				-188.8								
46.875		166.2		0.000		165.9				-190.9								
46.973		162.3		-0.011		160.6				-192.7								
47.070		160.1		-0.008		160.6				-193.1								
47.168		155.3		-0.006		154.0				-196.5								
47.266		149.1		-0.011		148.8				-201.3								
47.363		143.9		0.000		147.0				-200.0								
47.461		139.9		-0.002		140.5				-201.7								
47.559		135.5		-0.019		136.5				-203.0								
47.656		132.0		0.000		131.3				-206.5								
47.754		128.5		-0.004		126.0				-204.8								
47.852		124.6		-0.004		119.9				-206.0								
47.949		116.7		-0.004		118.2				-206.9								
48.047		112.7		-0.008		114.2				-206.5								
48.145		109.6		-0.013		107.7				-206.9								
48.242		107.0		-0.006		105.0				-208.6								
48.340		101.3		0.000		113.8				-209.1								
48.438		97.4		-0.013		119.5				-209.1								
48.535		92.5		-0.008		123.4				-208.6								
48.633		85.1		0.004		130.0				-210.4								
48.730		80.7		-0.002		132.2				-210.8								
48.828		71.9		-0.002		135.7				-210.4								
48.926		67.5		-0.004		135.2				-209.5								
49.023		61.4		-0.006		145.3				-208.6								
49.121		56.1		-0.006		148.4				-205.2								
49.219		50.0		-0.004		151.4				-207.3								
49.316		40.4		0.000		156.2				-206.9								
49.414		34.2		0.002		161.1				-203.9								
49.512		27.6		-0.008		164.1				-199.1								
49.609		21.1		-0.004		168.9				-194.4								
49.707		12.3		0.008		174.6				-189.2								
49.805		7.5		-0.004		176.8				-185.7								
49.902		1.3		-0.002		182.1				-182.3								
